# A_len [Âµs]   max Probe [V] Delta Probe [mV]   max I Delta [mV] Delta I[mV]
0.5 .52 .01 66 1
1.0 .95 .01 124 1
1.5 1.26 .01 100 1
2.0 1.45 .01 185 1
2.5 1.45 .01 188 1
3.0 1.33 .01 177 1
3.5 1.07 .01 145 1
4.0 .73 .01 101 1
4.5 .38 .01 49 1
5.0 .13 .01 -9 1
5.5 .45 .01 -69 1
6.0 .88 .01 -124 1
6.5 1.16 .01 -167 1
7.0 1.36 .01 -195 1
7.5 1.46 .01 -211 1
8.0 1.35 .01 -196 1
8.5 1.1 .01 -162 1
9.0 .71 .01 -104 1
9.5 .22 .01 -27 1
10.0 .45 .01 50 1
10.5 .9 .01 113 1
11.0 1.37 .01 163 1
11.5 1.41 .01 188 1
12.0 1.42 .01 191 1
